File: data/xrd/S2.csv
3.0125,258
3.2375,239
3.4625,153
3.6875,158
3.9125,120
4.1375,130
4.3625,121
4.5875,89
4.8125,92
5.0375,68
5.2625,72
5.4875,69
5.7125,57
5.9375,60
6.1625,43
6.3875,49
6.6125,44
6.8375,27
7.0625,37
7.2875,30
7.5125,32
7.7375,34
7.9625,32
8.1875,44
8.4125,35
8.6375,31
8.8625,31
9.0875,36
9.3125,38
9.5375,30
9.7625,30
9.9875,28
10.2125,31
10.4375,24
10.6625,16
10.8875,22
11.1125,30
11.3375,30
11.5625,14
11.7875,22
12.0125,24
12.2375,22
12.4625,29
12.6875,37
12.9125,20
13.1375,20
13.3625,26
13.5875,27
13.8125,29
14.0375,28
14.2625,21
14.4875,32
14.7125,26
14.9375,25
15.1625,28
15.3875,43
15.6125,34
15.8375,48
16.0625,45
16.2875,42
16.5125,43
16.7375,39
16.9625,45
17.1875,53
17.4125,45
17.6375,53
17.8625,49
18.0875,53
18.3125,66
18.5375,55
18.7625,62
18.9875,66
19.2125,58
19.4375,75
19.6625,60
19.8875,65
20.1125,62
20.3375,82
20.5625,138
20.7875,88
21.0125,86
21.2375,83
21.4625,80
21.6875,96
21.9125,103
22.1375,95
22.3625,107
22.5875,102
22.8125,106
23.0375,95
23.2625,98
23.4875,91
23.7125,101
23.9375,88
24.1625,94
24.3875,77
24.6125,110
24.8375,84
25.0625,110
25.2875,99
25.5125,103
25.7375,92
25.9625,98
26.1875,100
26.4125,87
26.6375,94
26.8625,79
27.0875,88
27.3125,77
27.5375,84
27.7625,89
27.9875,98
28.2125,93
28.4375,87
28.6625,94
28.8875,101
29.1125,89
29.3375,91
29.5625,94
29.7875,92
30.0125,81
30.2375,87
30.4625,71
30.6875,72
30.9125,84
31.1375,86
31.3625,79
31.5875,86
31.8125,90
32.0375,147
32.2625,122
32.4875,93
32.7125,79
32.9375,74
33.1625,61
33.3875,67
33.6125,81
33.8375,67
34.0625,70
34.2875,60
34.5125,71
34.7375,201
34.9625,149
35.1875,83
35.4125,61
35.6375,52
35.8625,60
36.0875,70
36.3125,90
36.5375,137
36.7625,153
36.9875,102
37.2125,56
37.4375,43
37.6625,51
37.8875,54
38.1125,48
38.3375,39
38.5625,39
38.7875,46
39.0125,48
39.2375,37
39.4625,46
39.6875,39
39.9125,42
40.1375,50
40.3625,33
40.5875,33
40.8125,33
41.0375,38
41.2625,41
41.4875,40
41.7125,37
41.9375,39
42.1625,46
42.3875,41
42.6125,44
42.8375,46
43.0625,43
43.2875,37
43.5125,32
43.7375,32
43.9625,61
44.1875,38
44.4125,37
44.6375,29
44.8625,43
45.0875,30
45.3125,36
45.5375,39
45.7625,37
45.9875,25
46.2125,43
46.4375,42
46.6625,35
46.8875,44
47.1125,39
47.3375,42
47.5625,43
47.7875,54
48.0125,66
48.2375,55
48.4625,29
48.6875,44
48.9125,38
49.1375,25
49.3625,30
49.5875,38
49.8125,30
50.0375,41
50.2625,49
50.4875,36
50.7125,42
50.9375,34
51.1625,39
51.3875,24
51.6125,23
51.8375,44
52.0625,39
52.2875,35
52.5125,35
52.7375,32
52.9625,38
53.1875,33
53.4125,29
53.6375,30
53.8625,38
54.0875,42
54.3125,37
54.5375,33
54.7625,33
54.9875,25
55.2125,32
55.4375,37
55.6625,22
55.8875,40
56.1125,32
56.3375,42
56.5625,30
56.7875,43
57.0125,55
57.2375,48
57.4625,44
57.6875,40
57.9125,28
58.1375,27
58.3625,48
58.5875,31
58.8125,31
59.0375,43
59.2625,34
59.4875,42
59.7125,41
59.9375,40
60.1625,45
60.3875,34
60.6125,36
60.8375,34
61.0625,36
61.2875,41
61.5125,33
61.7375,32
61.9625,33
62.1875,44
62.4125,30
62.6375,39
62.8625,43
63.0875,67
63.3125,54
63.5375,47
63.7625,57
63.9875,40
64.2125,31
64.4375,41
64.6625,47
64.8875,40
65.1125,43
65.3375,40
65.5625,41
65.7875,26
66.0125,37
66.2375,34
66.4625,23
66.6875,25
66.9125,34
67.1375,29
67.3625,37
67.5875,30
67.8125,40
68.0375,38
68.2625,43
68.4875,43
68.7125,42
68.9375,38
69.1625,34
69.3875,42
69.6125,30
69.8375,37
69.9625,22