File: data/xrd/S3.csv
3.0125,150
3.2375,145
3.4625,106
3.6875,98
3.9125,75
4.1375,70
4.3625,63
4.5875,49
4.8125,52
5.0375,55
5.2625,54
5.4875,41
5.7125,43
5.9375,36
6.1625,38
6.3875,39
6.6125,37
6.8375,35
7.0625,30
7.2875,30
7.5125,33
7.7375,28
7.9625,28
8.1875,30
8.4125,26
8.6375,27
8.8625,25
9.0875,26
9.3125,26
9.5375,31
9.7625,28
9.9875,31
10.2125,28
10.4375,24
10.6625,32
10.8875,26
11.1125,18
11.3375,26
11.5625,18
11.7875,30
12.0125,20
12.2375,22
12.4625,22
12.6875,19
12.9125,27
13.1375,27
13.3625,34
13.5875,28
13.8125,20
14.0375,21
14.2625,34
14.4875,27
14.7125,19
14.9375,15
15.1625,25
15.3875,31
15.6125,32
15.8375,28
16.0625,31
16.2875,33
16.5125,40
16.7375,46
16.9625,40
17.1875,43
17.4125,46
17.6375,53
17.8625,47
18.0875,59
18.3125,52
18.5375,61
18.7625,68
18.9875,56
19.2125,58
19.4375,55
19.6625,61
19.8875,70
20.1125,65
20.3375,70
20.5625,69
20.7875,55
21.0125,71
21.2375,84
21.4625,76
21.6875,91
21.9125,90
22.1375,69
22.3625,71
22.5875,87
22.8125,94
23.0375,87
23.2625,78
23.4875,77
23.7125,89
23.9375,89
24.1625,89
24.3875,96
24.6125,91
24.8375,91
25.0625,79
25.2875,77
25.5125,81
25.7375,83
25.9625,88
26.1875,63
26.4125,82
26.6375,87
26.8625,80
27.0875,80
27.3125,84
27.5375,83
27.7625,82
27.9875,69
28.2125,82
28.4375,86
28.6625,100
28.8875,92
29.1125,57
29.3375,82
29.5625,93
29.7875,96
30.0125,83
30.2375,98
30.4625,85
30.6875,83
30.9125,72
31.1375,83
31.3625,72
31.5875,72
31.8125,80
32.0375,134
32.2625,201
32.4875,118
32.7125,65
32.9375,78
33.1625,62
33.3875,69
33.6125,70
33.8375,63
34.0625,75
34.2875,69
34.5125,90
34.7375,261
34.9625,426
35.1875,109
35.4125,64
35.6375,61
35.8625,61
36.0875,62
36.3125,79
36.5375,177
36.7625,345
36.9875,121
37.2125,55
37.4375,49
37.6625,47
37.8875,43
38.1125,45
38.3375,40
38.5625,34
38.7875,45
39.0125,51
39.2375,36
39.4625,40
39.6875,39
39.9125,46
40.1375,33
40.3625,39
40.5875,44
40.8125,45
41.0375,40
41.2625,37
41.4875,33
41.7125,42
41.9375,39
42.1625,30
42.3875,38
42.6125,35
42.8375,39
43.0625,25
43.2875,46
43.5125,40
43.7375,45
43.9625,23
44.1875,35
44.4125,39
44.6375,38
44.8625,40
45.0875,44
45.3125,40
45.5375,33
45.7625,32
45.9875,28
46.2125,33
46.4375,33
46.6625,41
46.8875,38
47.1125,39
47.3375,41
47.5625,38
47.7875,46
48.0125,60
48.2375,44
48.4625,48
48.6875,39
48.9125,40
49.1375,31
49.3625,28
49.5875,39
49.8125,37
50.0375,30
50.2625,26
50.4875,31
50.7125,38
50.9375,31
51.1625,36
51.3875,30
51.6125,32
51.8375,33
52.0625,23
52.2875,36
52.5125,42
52.7375,33
52.9625,23
53.1875,32
53.4125,29
53.6375,39
53.8625,36
54.0875,36
54.3125,25
54.5375,29
54.7625,33
54.9875,32
55.2125,29
55.4375,25
55.6625,31
55.8875,33
56.1125,38
56.3375,49
56.5625,30
56.7875,35
57.0125,54
57.2375,45
57.4625,30
57.6875,24
57.9125,35
58.1375,30
58.3625,29
58.5875,36
58.8125,40
59.0375,40
59.2625,24
59.4875,21
59.7125,35
59.9375,38
60.1625,35
60.3875,28
60.6125,30
60.8375,24
61.0625,43
61.2875,44
61.5125,40
61.7375,36
61.9625,36
62.1875,51
62.4125,37
62.6375,35
62.8625,46
63.0875,67
63.3125,63
63.5375,57
63.7625,47
63.9875,28
64.2125,33
64.4375,40
64.6625,40
64.8875,39
65.1125,33
65.3375,29
65.5625,33
65.7875,34
66.0125,30
66.2375,45
66.4625,43
66.6875,32
66.9125,30
67.1375,39
67.3625,38
67.5875,35
67.8125,36
68.0375,38
68.2625,41
68.4875,40
68.7125,49
68.9375,36
69.1625,36
69.3875,31
69.6125,53
69.8375,49
69.9625,30